File: packages/smart-datalyzer/smart_datalyzer-0.1.1.tar.gz/smart_datalyzer-0.1.1/reports/covariance_matrix.csv
,Sintering Temperature (°C),Heating Rate (°C/min),Holding Time (min),Cooling Rate (°C/min),Relative Density (%),Micro Hardness (Hv),Nano Hardness (GPa),Modulus of Elasticity (GPa),Stiffness (mN/nm),Plasticity Index,is_real
Sintering Temperature (°C),16992.3,146.564,-18.0882,-30.916,13.6913,494.869,12.0008,29.9123,2.34903,-0.029954,0.00413175
Heating Rate (°C/min),146.564,193.626,-6.75106,-16.5897,-0.333721,-8.47361,-0.389238,-8.78493,-0.0741607,-0.00180467,0.000889157
Holding Time (min),-18.0882,-6.75106,53.6448,6.98378,1.93487,36.504,0.798523,35.648,0.467549,-0.00264323,0.000466746
Cooling Rate (°C/min),-30.916,-16.5897,6.98378,197.453,0.380002,16.7563,-0.113483,15.5663,0.0333793,0.00114722,-0.000912556
Relative Density (%),13.6913,-0.333721,1.93487,0.380002,0.115794,1.39745,0.0403985,1.25303,0.0190373,-0.000130279,6.22192e-05
Micro Hardness (Hv),494.869,-8.47361,36.504,16.7563,1.39745,337.351,0.71504,36.746,0.381656,-9.5334e-05,0.00157413
Nano Hardness (GPa),12.0008,-0.389238,0.798523,-0.113483,0.0403985,0.71504,0.0742578,0.750068,0.00834376,-6.42648e-05,1.83789e-05
Modulus of Elasticity (GPa),29.9123,-8.78493,35.648,15.5663,1.25303,36.746,0.750068,65.6396,0.346492,-0.00161128,0.000236068
Stiffness (mN/nm),2.34903,-0.0741607,0.467549,0.0333793,0.0190373,0.381656,0.00834376,0.346492,0.0116031,-1.75922e-05,6.14885e-06
Plasticity Index,-0.029954,-0.00180467,-0.00264323,0.00114722,-0.000130279,-9.5334e-05,-6.42648e-05,-0.00161128,-1.75922e-05,0.000212712,1.30312e-05
is_real,0.00413175,0.000889157,0.000466746,-0.000912556,6.22192e-05,0.00157413,1.83789e-05,0.000236068,6.14885e-06,1.30312e-05,0.00738912